#2018-02-14
#18:10
#Balayage par: physique
#ScanTask Size: 201

#Échantillon: ; #Matériaux: AlGaAs; 
#Fente d'entrée: 0,000mm; #Fente de sortie: 0,000mm; #Hauteur fente d'entrée: 2 cm; 
#Température: 1000,00°K; #Filtre Entrée: Aucun; #Détecteur: PM Hamamatsu R9268; 
#Source d'excitation: HeCd 325nm; #Puissance Laser: 1000,00mW; #Pre-amplificateur: Aucun; #Réseaux: 250nm; #Autres: ; 

#Longueur d'ondes OR77200: 400,000000
#Sensitivity: 3 V; Vernier Mode: Off; Vernier Value: 50.000; Main Filter: No Filter; Filter Freq (Hz): 1000.000; Filter Mode: Manual;  Line Notch: Off; Reference: Internal; Reference Mode: F; Ref Phase (°): 0.000; Ref Freq (Hz): 921.020; Output Filter: 6dB; Time Constant: 100 ms; Dynamic Res.: Hi Stab; X Offset: Off; X Offset Val %: 0.000; Y Offset: Off; Y Offset Val %: 0.000; Expand: Off; Int Osc (Vrms): 0.100; Int Osc (Hz): 1000.000; Trigger Mode: Asynchronous; Input Mode: Voltage; Ovld Source: Y Channel; 

#OR77200.Long. Ondes(nm)       	EGG5210.Analog In 1(V)        
200E+0	-4.5529999999999999E+0
201E+0	-5.7569999999999997E+0
202E+0	-2.9790000000000001E+0
203E+0	-5.0499999999999998E+0
204E+0	-3.8759999999999999E+0
205E+0	-1.79E+0
206E+0	-3.2690000000000001E+0
207E+0	-1.772E+0
208E+0	-3.415E+0
209E+0	-2.9199999999999999E+0
210E+0	-2.6499999999999999E+0
211E+0	-898.00000000000002E-3
212E+0	-1.8700000000000001E+0
213E+0	-310E-3
214E+0	-63E-3
215E+0	-142.99999999999999E-3
216E+0	-582.99999999999996E-3
217E+0	522.00000000000002E-3
218E+0	1.0860000000000001E+0
219E+0	-51.999999999999998E-3
220E+0	1.1819999999999999E+0
221E+0	1.7270000000000001E+0
222E+0	1.1579999999999999E+0
223E+0	1.6950000000000001E+0
224E+0	1.8080000000000001E+0
225E+0	1.6220000000000001E+0
226E+0	1.4950000000000001E+0
227E+0	1.619E+0
228E+0	1.611E+0
229E+0	1.6939999999999999E+0
230E+0	1.6140000000000001E+0
231E+0	1.4930000000000001E+0
232E+0	1.669E+0
233E+0	1.4410000000000001E+0
234E+0	1.4990000000000001E+0
235E+0	1.6220000000000001E+0
236E+0	1.423E+0
237E+0	1.5640000000000001E+0
238E+0	1.4770000000000001E+0
239E+0	1.4810000000000001E+0
240E+0	1.492E+0
241E+0	1.4359999999999999E+0
242E+0	1.425E+0
243E+0	1.337E+0
244E+0	1.502E+0
245E+0	1.423E+0
246E+0	1.494E+0
247E+0	1.4630000000000001E+0
248E+0	1.415E+0
249E+0	1.4079999999999999E+0
250E+0	1.3280000000000001E+0
251E+0	1.3189999999999999E+0
252E+0	1.3320000000000001E+0
253E+0	1.425E+0
254E+0	1.327E+0
255E+0	1.339E+0
256E+0	1.3280000000000001E+0
257E+0	1.4530000000000001E+0
258E+0	1.3799999999999999E+0
259E+0	1.333E+0
260E+0	1.395E+0
261E+0	1.3600000000000001E+0
262E+0	1.3480000000000001E+0
263E+0	1.298E+0
264E+0	1.361E+0
265E+0	1.325E+0
266E+0	1.4059999999999999E+0
267E+0	1.3140000000000001E+0
268E+0	1.3240000000000001E+0
269E+0	1.288E+0
270E+0	1.3029999999999999E+0
271E+0	1.3580000000000001E+0
272E+0	1.2929999999999999E+0
273E+0	1.3240000000000001E+0
274E+0	1.3109999999999999E+0
275E+0	1.26E+0
276E+0	1.2709999999999999E+0
277E+0	1.294E+0
278E+0	1.3100000000000001E+0
279E+0	1.2230000000000001E+0
280E+0	1.2390000000000001E+0
281E+0	1.302E+0
282E+0	1.2789999999999999E+0
283E+0	1.2809999999999999E+0
284E+0	1.298E+0
285E+0	1.2549999999999999E+0
286E+0	1.272E+0
287E+0	1.2649999999999999E+0
288E+0	1.2829999999999999E+0
289E+0	1.254E+0
290E+0	1.2E+0
291E+0	1.278E+0
292E+0	1.248E+0
293E+0	1.23E+0
294E+0	1.2549999999999999E+0
295E+0	1.284E+0
296E+0	1.262E+0
297E+0	1.2629999999999999E+0
298E+0	1.2549999999999999E+0
299E+0	1.276E+0
300E+0	1.2190000000000001E+0
301E+0	1.2549999999999999E+0
302E+0	1.2589999999999999E+0
303E+0	1.2110000000000001E+0
304E+0	1.256E+0
305E+0	1.2490000000000001E+0
306E+0	1.2410000000000001E+0
307E+0	1.246E+0
308E+0	1.24E+0
309E+0	1.2250000000000001E+0
310E+0	1.23E+0
311E+0	1.25E+0
312E+0	1.244E+0
313E+0	1.2470000000000001E+0
314E+0	1.276E+0
315E+0	1.2150000000000001E+0
316E+0	1.238E+0
317E+0	1.2190000000000001E+0
318E+0	1.226E+0
319E+0	1.25E+0
320E+0	1.2509999999999999E+0
321E+0	1.246E+0
322E+0	1.2789999999999999E+0
323E+0	1.2430000000000001E+0
324E+0	1.254E+0
325E+0	1.1990000000000001E+0
326E+0	1.1839999999999999E+0
327E+0	1.236E+0
328E+0	1.2030000000000001E+0
329E+0	1.1539999999999999E+0
330E+0	1.232E+0
331E+0	1.1850000000000001E+0
332E+0	1.208E+0
333E+0	1.1499999999999999E+0
334E+0	1.1910000000000001E+0
335E+0	1.1539999999999999E+0
336E+0	1.0740000000000001E+0
337E+0	1.167E+0
338E+0	1.2549999999999999E+0
339E+0	1.0640000000000001E+0
340E+0	1.113E+0
341E+0	1.081E+0
342E+0	764.00000000000001E-3
343E+0	829.99999999999996E-3
344E+0	945.99999999999995E-3
345E+0	872E-3
346E+0	-1.6339999999999999E+0
347E+0	-3.3069999999999999E+0
348E+0	-3.7850000000000001E+0
349E+0	-5.5540000000000003E+0
350E+0	-6.4770000000000003E+0
351E+0	-2.7040000000000002E+0
352E+0	204.99999999999999E-3
353E+0	859.99999999999999E-3
354E+0	748E-3
355E+0	965.99999999999997E-3
356E+0	1.1120000000000001E+0
357E+0	1.085E+0
358E+0	1.05E+0
359E+0	1.0389999999999999E+0
360E+0	1.079E+0
361E+0	1.1060000000000001E+0
362E+0	1.0149999999999999E+0
363E+0	1.097E+0
364E+0	1.0800000000000001E+0
365E+0	1.1240000000000001E+0
366E+0	1.087E+0
367E+0	1.208E+0
368E+0	1.1799999999999999E+0
369E+0	1.153E+0
370E+0	1.1240000000000001E+0
371E+0	1.1799999999999999E+0
372E+0	1.151E+0
373E+0	1.161E+0
374E+0	1.1319999999999999E+0
375E+0	1.21E+0
376E+0	1.103E+0
377E+0	1.1599999999999999E+0
378E+0	1.1539999999999999E+0
379E+0	1.1779999999999999E+0
380E+0	1.181E+0
381E+0	1.196E+0
382E+0	1.171E+0
383E+0	1.101E+0
384E+0	1.1419999999999999E+0
385E+0	1.1819999999999999E+0
386E+0	1.1819999999999999E+0
387E+0	1.1839999999999999E+0
388E+0	1.179E+0
389E+0	1.171E+0
390E+0	1.1379999999999999E+0
391E+0	1.179E+0
392E+0	1.1799999999999999E+0
393E+0	1.1719999999999999E+0
394E+0	1.1799999999999999E+0
395E+0	1.171E+0
396E+0	1.159E+0
397E+0	1.1559999999999999E+0
398E+0	1.165E+0
399E+0	1.1739999999999999E+0
400E+0	1.175E+0
